* Poses QdeT
$ml1
*temps(mn)|Débit(m3/s)
*---------++++++++++
     0.000   610.143
     5.000   610.143
    20.000   606.116
    35.000   607.590
    50.000   607.426
    65.000   601.805
    80.000   602.573
    95.000   600.887
   110.000   604.828
   125.000   591.394
   140.000   591.338
   155.000   612.495
   170.000   600.348
   185.000   593.815
   200.000   584.754
   215.000   578.605
   230.000   579.516
   245.000   577.754
   260.000   577.625
   275.000   577.936
   290.000   578.556
   305.000   578.747
   320.000   576.245
   335.000   575.862
   350.000   576.973
   365.000   576.287
   380.000   579.828
   395.000   578.565
   410.000   572.978
   425.000   571.063
   440.000   566.399
   455.000   561.198
   470.000   557.888
   485.000   555.528
   500.000   552.912
   515.000   554.164
   530.000   561.350
   545.000   559.570
   560.000   555.876
   575.000   558.442
   590.000   558.719
   605.000   561.346
   620.000   558.103
   635.000   562.331
   650.000   559.330
   665.000   560.240
   680.000   567.100
   695.000   560.936
   710.000   554.661
   725.000   553.358
   740.000   553.672
   755.000   552.526
   770.000   551.672
   785.000   553.230
   800.000   548.413
   815.000   554.761
   830.000   549.582
   845.000   553.468
   860.000   550.022
   875.000   549.548
   890.000   553.446
   905.000   557.335
   920.000   556.607
   935.000   556.037
   950.000   558.342
   965.000   552.815
   980.000   556.367
   995.000   554.088
  1010.000   563.946
  1025.000   560.664
  1040.000   553.569
  1055.000   557.051
  1070.000   568.688
  1085.000   558.019
  1100.000   574.424
  1115.000   586.179
  1130.000   591.060
  1145.000   585.045
  1160.000   587.855
  1175.000   595.862
  1190.000   591.797
  1205.000   590.701
  1220.000   591.498
  1235.000   592.519
  1250.000   594.519
  1265.000   590.770
  1280.000   591.960
  1295.000   595.246
  1310.000   593.563
  1325.000   590.603
  1340.000   593.396
  1355.000   595.180
  1370.000   594.005
  1385.000   591.481
  1400.000   592.791
  1415.000   592.269
  1430.000   591.491
  1445.000   592.643
  1460.000   592.065
  1475.000   592.141
  1490.000   595.145
  1505.000   610.903
  1520.000   595.705
  1535.000   588.368
  1550.000   584.714
  1565.000   585.444
  1580.000   586.734
  1595.000   580.772
  1610.000   584.695
  1625.000   579.716
  1640.000   573.395
  1655.000   571.970
  1670.000   579.681
  1685.000   570.130
  1700.000   570.142
  1715.000   563.667
  1730.000   559.503
  1745.000   554.222
  1760.000   555.532
  1775.000   554.781
  1790.000   553.121
  1805.000   551.133
  1820.000   552.543
  1835.000   545.201
  1850.000   539.763
  1865.000   545.393
  1880.000   544.628
  1895.000   547.720
  1910.000   526.931
  1925.000   513.305
  1940.000   503.353
  1955.000   503.746
  1970.000   502.649
  1985.000   504.474
  2000.000   499.730
  2015.000   498.216
  2030.000   497.791
  2045.000   496.312
  2060.000   496.893
  2075.000   495.373
  2090.000   495.384
  2105.000   496.580
  2120.000   486.146
  2135.000   496.065
  2150.000   488.115
  2165.000   485.134
  2180.000   485.509
  2195.000   485.674
  2210.000   471.267
  2225.000   474.551
  2240.000   459.147
  2255.000   465.203
  2270.000   464.572
  2285.000   465.996
  2300.000   465.193
  2315.000   466.168
  2330.000   465.058
  2345.000   466.377
  2360.000   464.855
  2375.000   466.293
  2390.000   469.546
  2405.000   468.636
  2420.000   469.850
  2435.000   468.201
  2450.000   471.446
  2465.000   471.241
  2480.000   477.928
  2495.000   492.665
  2510.000   492.030
  2525.000   501.990
  2540.000   502.531
  2555.000   506.924
  2570.000   507.617
  2585.000   511.396
  2600.000   517.416
  2615.000   523.257
  2630.000   529.806
  2645.000   543.951
  2660.000   549.330
  2675.000   556.852
  2690.000   558.171
  2705.000   557.838
  2720.000   554.009
  2735.000   553.250
  2750.000   559.637
  2765.000   560.277
  2780.000   554.406
  2795.000   556.809
  2810.000   560.785
  2825.000   556.417
  2840.000   565.594
  2855.000   557.732
  2870.000   553.551
  2885.000   553.405
  2900.000   555.242
  2915.000   553.539
  2930.000   553.090
  2945.000   553.655
  2960.000   550.777
  2975.000   549.127
  2990.000   550.299
  3005.000   549.897
  3020.000   549.486
  3035.000   548.529
  3050.000   547.175
  3065.000   546.221
  3080.000   546.080
  3095.000   545.809
  3110.000   545.348
  3125.000   546.348
  3140.000   548.745
  3155.000   543.070
  3170.000   540.700
  3185.000   544.743
  3200.000   538.298
  3215.000   529.758
  3230.000   524.222
  3245.000   528.815
  3260.000   540.280
  3275.000   539.220
  3290.000   537.314
  3305.000   540.313
  3320.000   527.445
  3335.000   515.551
  3350.000   485.236
  3365.000   464.237
  3380.000   477.477
  3395.000   514.271
  3410.000   542.644
  3425.000   543.744
  3440.000   544.342
  3455.000   547.269
  3470.000   539.848
  3485.000   538.267
  3500.000   534.193
  3515.000   527.637
  3530.000   515.877
  3545.000   508.599
  3560.000   503.746
  3575.000   503.076
  3590.000   504.157
  3605.000   506.915
  3620.000   505.074
  3635.000   498.324
  3650.000   499.921
  3665.000   507.040
  3680.000   497.292
  3695.000   491.928
  3710.000   501.173
  3725.000   501.640
  3740.000   496.555
  3755.000   498.488
  3770.000   494.565
  3785.000   496.455
  3800.000   497.259
  3815.000   499.074
  3830.000   497.722
  3845.000   499.432
  3860.000   497.560
  3875.000   502.023
  3890.000   505.008
  3905.000   500.955
  3920.000   507.066
  3935.000   500.828
  3950.000   508.824
  3965.000   528.770
  3980.000   526.692
  3995.000   538.989
  4010.000   533.875
  4025.000   535.402
  4040.000   530.527
  4055.000   537.829
  4070.000   535.042
  4085.000   531.396
  4100.000   533.184
  4115.000   534.190
  4130.000   540.137
  4145.000   530.890
  4160.000   535.791
  4175.000   531.028
  4190.000   529.302
  4205.000   533.313
  4220.000   531.494
  4235.000   526.861
  4250.000   526.358
  4265.000   526.427
  4280.000   526.044
  4295.000   525.463
  4310.000   523.209
  4325.000   517.202
  4340.000   513.337
  4355.000   513.000
  4370.000   506.227
  4385.000   498.159
  4400.000   495.437
  4415.000   496.501
  4430.000   493.219
  4445.000   490.210
  4460.000   491.622
  4475.000   488.309
  4490.000   486.631
  4505.000   488.410
  4520.000   487.879
  4535.000   486.537
  4550.000   489.592
  4565.000   486.362
  4580.000   482.146
  4595.000   484.624
  4610.000   478.033
  4625.000   473.546
  4640.000   469.977
  4655.000   468.812
  4670.000   465.988
  4685.000   469.388
  4700.000   467.036
  4715.000   464.088
  4730.000   465.600
  4745.000   462.348
  4760.000   453.476
  4775.000   451.588
  4790.000   456.587
  4805.000   461.082
  4820.000   443.974
  4835.000   427.425
  4850.000   422.318
  4865.000   419.097
  4880.000   415.311
  4895.000   414.976
  4910.000   429.675
  4925.000   422.706
  4940.000   417.675
  4955.000   416.600
  4970.000   422.776
  4985.000   433.664
  5000.000   433.422
  5015.000   444.130
  5030.000   438.287
  5045.000   438.886
  5060.000   421.806
  5075.000   416.717
  5090.000   421.549
  5105.000   425.839
  5120.000   429.075
  5135.000   431.077
  5150.000   436.186
  5165.000   450.323
  5180.000   461.126
  5195.000   452.859
  5210.000   442.545
  5225.000   441.875
  5240.000   452.695
  5255.000   458.078
  5270.000   454.561
  5285.000   451.774
  5300.000   463.225
  5315.000   457.953
  5330.000   461.191
  5345.000   465.354
  5360.000   461.615
  5375.000   461.600
  5390.000   464.165
  5405.000   464.014
  5420.000   468.205
  5435.000   475.470
  5450.000   469.534
  5465.000   466.573
  5480.000   466.626
  5495.000   472.133
  5510.000   471.719
  5525.000   475.240
  5540.000   480.685
  5555.000   492.033
  5570.000   493.981
  5585.000   498.303
  5600.000   498.079
  5615.000   498.030
  5630.000   490.975
  5645.000   496.532
  5660.000   499.235
  5675.000   496.356
  5690.000   503.799
  5705.000   501.581
  5720.000   496.911
  5735.000   494.650
  5750.000   496.296
  5765.000   504.814
  5780.000   512.628
  5795.000   511.199
  5810.000   511.681
  5825.000   507.232
  5840.000   514.481
  5855.000   522.650
  5870.000   536.680
  5885.000   527.546
  5900.000   532.598
  5915.000   516.603
  5930.000   519.316
  5945.000   523.991
  5960.000   521.040
  5975.000   515.636
  5990.000   509.884
  6005.000   513.062
  6020.000   511.624
  6035.000   519.073
  6050.000   511.043
  6065.000   504.870
  6080.000   496.822
  6095.000   502.052
  6110.000   502.267
  6125.000   495.996
  6140.000   502.817
  6155.000   494.139
  6170.000   499.708
  6185.000   504.939
  6200.000   504.426
  6215.000   507.698
  6230.000   495.535
  6245.000   492.594
  6260.000   488.511
  6275.000   489.368
  6290.000   487.254
  6305.000   483.357
  6320.000   481.179
  6335.000   473.441
  6350.000   477.656
  6365.000   486.348
  6380.000   470.294
  6395.000   460.775
  6410.000   455.987
  6425.000   394.607
  6440.000   392.501
  6455.000   396.184
  6470.000   393.207
  6485.000   384.009
  6500.000   383.813
  6515.000   398.645
  6530.000   393.619
  6545.000   407.848
  6560.000   407.580
  6575.000   416.972
  6590.000   415.385
  6605.000   439.143
  6620.000   441.534
  6635.000   466.698
  6650.000   477.664
  6665.000   481.362
  6680.000   478.474
  6695.000   478.705
  6710.000   479.651
  6725.000   479.964
  6740.000   483.497
  6755.000   485.479
  6770.000   484.498
  6785.000   478.257
  6800.000   475.392
  6815.000   474.989
  6830.000   474.553
  6845.000   476.396
  6860.000   473.169
  6875.000   473.393
  6890.000   472.977
  6905.000   475.918
  6920.000   472.092
  6935.000   467.213
  6950.000   463.594
  6965.000   466.611
  6980.000   464.957
  6995.000   464.335
  7010.000   462.704
  7025.000   464.552
  7040.000   463.732
  7055.000   459.580
  7070.000   458.804
  7085.000   465.717
  7100.000   462.611
  7115.000   456.368
  7130.000   464.601
  7145.000   465.348
  7160.000   462.262
  7175.000   457.221
  7190.000   459.135
  7205.000   456.268
  7220.000   458.069
  7235.000   456.157
  7250.000   454.908
  7265.000   452.407
  7280.000   446.465
  7295.000   445.026
  7310.000   441.406
  7325.000   435.656
  7340.000   422.311
  7355.000   423.533
  7370.000   437.876
  7385.000   441.878
  7400.000   444.529
  7415.000   444.514
  7430.000   440.910
  7445.000   442.452
  7460.000   443.792
  7475.000   443.267
  7490.000   449.663
  7505.000   443.175
  7520.000   444.399
  7535.000   441.718
  7550.000   443.419
  7565.000   442.838
  7580.000   441.579
  7595.000   373.465
  7610.000   365.194
  7625.000   360.987
  7640.000   366.526
  7655.000   364.703
  7670.000   364.883
  7685.000   368.302
  7700.000   362.770
  7715.000   364.220
  7730.000   364.429
  7745.000   366.406
  7760.000   370.339
  7775.000   375.700
  7790.000   380.224
  7805.000   366.468
  7820.000   392.592
  7835.000   398.696
  7850.000   395.364
  7865.000   391.636
  7880.000   422.334
  7895.000   425.189
  7910.000   429.461
  7925.000   429.361
  7940.000   433.084
  7955.000   432.273
  7970.000   437.439
  7985.000   440.625
  8000.000   450.797
  8015.000   439.302
  8030.000   442.888
  8045.000   456.261
  8060.000   455.371
  8075.000   452.944
  8090.000   452.088
  8105.000   455.802
  8120.000   460.097
  8135.000   455.656
  8150.000   453.379
  8165.000   462.498
  8180.000   475.446
  8195.000   489.750
  8210.000   492.166
  8225.000   489.284
  8240.000   476.733
  8255.000   476.642
  8270.000   463.514
  8285.000   443.657
  8300.000   463.961
  8315.000   472.070
  8330.000   471.241
  8345.000   466.506
  8360.000   475.230
  8375.000   469.499
  8390.000   470.017
  8405.000   481.494
  8420.000   470.443
  8435.000   465.587
  8450.000   469.195
  8465.000   468.411
  8480.000   469.747
  8495.000   468.294
  8510.000   469.254
  8525.000   465.455
  8540.000   465.573
  8555.000   486.386
  8570.000   499.765
  8585.000   503.776
  8600.000   508.749
  8615.000   509.938
  8630.000   511.073
  8645.000   510.600
  8660.000   513.846
  8675.000   514.667
  8690.000   515.331
  8705.000   516.206
  8720.000   513.146
  8735.000   512.488
  8750.000   510.846
  8765.000   513.313
  8780.000   517.246
  8795.000   513.945
  8810.000   514.284
  8825.000   513.182
  8840.000   509.818
  8855.000   507.575
  8870.000   512.925
  8885.000   510.608
  8900.000   510.340
  8915.000   508.062
  8930.000   514.654
  8945.000   508.150
  8960.000   510.666
  8975.000   509.560
  8990.000   527.330
  9005.000   530.778
  9020.000   525.808
  9035.000   470.510
  9050.000   483.011
  9065.000   490.124
  9080.000   517.505
  9095.000   533.067
  9110.000   539.537
  9125.000   534.862
  9140.000   535.660
  9155.000   533.280
  9170.000   533.936
  9185.000   536.271
  9200.000   536.294
  9215.000   533.592
  9230.000   538.997
  9245.000   530.182
  9260.000   515.246
  9275.000   490.947
  9290.000   473.493
  9305.000   476.636
  9320.000   450.661
  9335.000   446.573
  9350.000   403.841
  9365.000   454.674
  9380.000   478.397
  9395.000   479.170
  9410.000   476.952
  9425.000   526.993
  9440.000   519.262
  9455.000   510.336
  9470.000   497.617
  9485.000   497.015
  9500.000   485.689
  9515.000   485.882
  9530.000   482.070
  9545.000   478.441
  9560.000   466.701
  9575.000   470.079
  9590.000   460.838
  9605.000   463.078
  9620.000   470.993
  9635.000   470.805
  9650.000   470.660
  9665.000   457.981
  9680.000   456.025
  9695.000   450.806
  9710.000   451.456
  9725.000   428.623
  9740.000   369.520
  9755.000   363.967
  9770.000   382.751
  9785.000   392.732
  9800.000   414.420
  9815.000   427.083
  9830.000   432.995
  9845.000   415.591
  9860.000   414.988
  9875.000   414.273
  9890.000   421.163
  9905.000   432.844
  9920.000   423.547
  9935.000   423.075
  9950.000   415.871
  9965.000   409.581
  9980.000   400.194
  9995.000   401.656
 10010.000   412.534
 10025.000   403.017
 10040.000   406.635
 10055.000   400.905
 10070.000   404.407
 10085.000   402.744
 10100.000   401.482
 10115.000   403.097
 10130.000   403.255
 10145.000   410.406
 10160.000   409.238
 10175.000   411.062
 10190.000   408.007
 10265.000   418.293
 10280.000   421.709
 10295.000   425.638
 10310.000   421.431
 10325.000   419.300
 10340.000   421.254
 10355.000   418.958
 10370.000   419.995
 10385.000   428.951
 10400.000   424.628
 10415.000   423.612
 10430.000   423.816
 10445.000   429.786
 10460.000   425.430
 10475.000   430.354
 10490.000   422.484
 10505.000   422.786
 10520.000   422.111
 10535.000   428.464
 10550.000   415.925
 10565.000   422.288
 10580.000   427.644
 10595.000   411.717
 10610.000   427.002
 10625.000   445.467
 10640.000   447.968
 10655.000   443.044
 10670.000   439.805
 10685.000   445.731
 10700.000   442.334
 10715.000   441.609
 10730.000   449.112
 10745.000   449.218
 10760.000   435.699
 10775.000   442.858
 10790.000   445.671
 10805.000   439.525
 10820.000   444.522
 10835.000   452.665
 10850.000   451.485
 10865.000   442.857
 10880.000   445.652
 10895.000   444.753
 10910.000   442.724
 10925.000   441.887
 10940.000   445.280
 10955.000   450.498
 10970.000   442.353
 10985.000   445.553
 11000.000   441.430
 11015.000   447.336
 11030.000   442.534
 11045.000   440.878
 11060.000   453.875
 11075.000   453.672
 11090.000   458.472
 11105.000   465.302
 11120.000   448.910
 11135.000   444.635
 11150.000   441.648
 11165.000   441.699
 11180.000   443.540
 11195.000   442.212
 11210.000   439.660
 11225.000   439.717
 11240.000   446.552
 11255.000   443.024
 11270.000   445.587
 11285.000   445.260
 11300.000   449.994
 11315.000   445.349
 11330.000   440.909
 11345.000   436.084
 11360.000   437.840
 11375.000   435.409
 11390.000   429.572
 11405.000   424.314
 11420.000   423.623
 11435.000   423.297
 11450.000   421.628
 11465.000   421.501
 11480.000   431.841
 11495.000   418.530
 11510.000   420.289
 11525.000   418.322
 11540.000   418.455
 11555.000   415.811
 11570.000   418.033
 11585.000   431.858
 11600.000   429.194
 11615.000   436.908
 11630.000   417.260
 11645.000   411.650
 11660.000   407.407
 11675.000   404.360
 11690.000   407.365
 11705.000   401.451
 11720.000   409.286
 11735.000   406.108
 11750.000   404.371
 11765.000   402.100
 11780.000   400.919
 11795.000   402.244
 11810.000   410.816
 11825.000   403.697
 11840.000   404.023
 11855.000   412.846
 11870.000   407.953
 11885.000   407.035
 11900.000   403.199
 11915.000   409.483
 11930.000   401.918
 11945.000   413.826
 11960.000   407.060
 11975.000   401.707
 11990.000   408.491
 12005.000   402.805
 12020.000   404.435
 12035.000   408.889
 12050.000   408.814
 12065.000   404.081
 12080.000   411.774
 12095.000   385.217
 12110.000   378.272
 12125.000   380.437
 12140.000   382.289
 12155.000   383.555
 12170.000   378.526
 12185.000   383.714
 12200.000   378.899
 12215.000   380.944
 12230.000   383.859
 12245.000   385.207
 12260.000   379.149
 12275.000   378.784
 12290.000   385.406
 12305.000   393.884
 12320.000   392.223
 12335.000   383.130
 12350.000   382.473
 12365.000   382.956
 12380.000   380.678
 12395.000   373.637
 12410.000   367.700
 12425.000   380.177
 12440.000   373.842
 12455.000   384.304
 12470.000   393.718
 12485.000   399.788
 12500.000   396.604
 12515.000   397.352
 12530.000   397.372
 12545.000   403.111
 12560.000   410.522
 12575.000   426.057
 12590.000   421.417
 12605.000   426.168
 12620.000   431.030
 12635.000   441.834
 12650.000   444.013
 12665.000   450.894
 12680.000   455.731
 12695.000   455.106
 12710.000   460.946
 12725.000   460.034
 12740.000   457.567
 12755.000   458.343
 12770.000   461.824
 12785.000   460.736
 12800.000   461.611
 12815.000   461.609
 12830.000   457.860
 12845.000   469.966
 12860.000   468.396
 12875.000   474.941
 12890.000   473.992
 12905.000   472.207
 12920.000   471.375
 12935.000   474.184
 12950.000   475.740
 12965.000   471.565
 12980.000   475.796
 12995.000   477.509
 13010.000   475.207
 13025.000   473.246
 13040.000   476.406
 13055.000   476.644
 13070.000   477.861
 13085.000   488.631
 13100.000   472.878
 13115.000   470.508
 13130.000   470.302
 13145.000   470.176
 13160.000   472.620
 13175.000   475.254
 13190.000   471.423
 13205.000   472.058
 13220.000   464.722
 13235.000   447.434
 13250.000   441.157
 13265.000   435.799
 13280.000   429.727
 13295.000   431.688
 13310.000   429.701
 13325.000   426.184
 13340.000   421.435
 13355.000   423.085
 13370.000   422.237
 13385.000   416.888
 13400.000   416.192
 13415.000   408.601
 13430.000   406.999
 13445.000   425.225
 13460.000   427.282
 13475.000   425.677
 13490.000   418.526
 13505.000   421.843
 13520.000   416.193
 13535.000   409.474
 13550.000   418.501
 13565.000   386.913
 13580.000   395.078
 13595.000   410.476
 13610.000   423.293
 13625.000   410.783
